# Wilkinson Microwave Anisotropy Probe (WMAP) 9-year data release.
# WMAP 9-Year Combined Power Spectrum, version 5.0 (December 2012)
#
# References: - WMAP Explanatory Supplement: http://lambda.gsfc.nasa.gov/
#             - Bennett, et al. (2012)
#             - Hinshaw, et al. (2012)
#
# Column 1 = multipole moment l
# Column 2 = EE power spectrum, units = uK^2, =  l(l+1)/2pi * C_l.
# Column 3 = 'Error' derived from diagonal terms of Fisher matrix, units = uK^2.
#             Included only as an estimate of their magnitude.  The
#             multipole moments are slightly coupled, so a correct
#             treatment of errors requires use of the entire Fisher matrix.
# Column 4 = portion of column3 error attributed to measurement errors,
#             in "2SN + NN" form, units = uK^2.
# Column 5 = portion of column3 error attributed to cosmic variance, 
#             assuming the best-fit LCDM model
           2        -0.0860         0.0432         0.0247         0.0355
           3         0.0928         0.0608         0.0364         0.0488
           4         0.1892         0.0632         0.0426         0.0467
           5        -0.0106         0.0571         0.0445         0.0357
           6        -0.0071         0.0495         0.0438         0.0231
           7        -0.1308         0.0448         0.0429         0.0130
           8        -0.1001         0.0444         0.0439         0.0068
           9         0.2010         0.0475         0.0474         0.0039
          10        -0.2105         0.0528         0.0527         0.0029
          11        -0.0349         0.0590         0.0589         0.0026
          12         0.1743         0.0655         0.0654         0.0023
          13        -0.0653         0.0722         0.0721         0.0019
          14        -0.0216         0.0791         0.0791         0.0016
          15         0.6313         0.0864         0.0864         0.0014
          16         0.0148         0.0942         0.0941         0.0013
          17        -0.1903         0.1022         0.1022         0.0014
          18        -0.1577         0.1104         0.1104         0.0014
          19        -0.1423         0.1189         0.1189         0.0015
          20        -0.1336         0.1275         0.1275         0.0015
          21         0.4371         0.1365         0.1364         0.0016
          22        -0.0944         0.1457         0.1456         0.0017
          23         0.3378         0.1551         0.1551         0.0019
          24         0.0448         0.1648         0.1648         0.0022
          25         0.3524         0.1748         0.1748         0.0025
          26        -0.1315         0.1850         0.1850         0.0028
          27        -0.0267         0.1954         0.1954         0.0031
          28         0.0410         0.2061         0.2061         0.0035
          29         0.7491         0.2170         0.2169         0.0039
          30         0.5842         0.2281         0.2280         0.0043
          31         0.3237         0.2394         0.2394         0.0047
          32         0.5718         0.2509         0.2509         0.0052
          33         0.0933         0.2627         0.2626         0.0056
          34        -0.1429         0.2746         0.2746         0.0061
          35         0.5405         0.2869         0.2868         0.0066
          36         0.1440         0.2993         0.2992         0.0072
          37         0.0965         0.3119         0.3119         0.0078
          38        -0.5498         0.3248         0.3247         0.0084
          39        -0.3309         0.3379         0.3378         0.0091
          40         0.0973         0.3513         0.3511         0.0097
          41         0.5716         0.3648         0.3647         0.0105
          42         0.5101         0.3787         0.3785         0.0112
          43         0.2032         0.3927         0.3925         0.0120
          44         0.0270         0.4069         0.4067         0.0128
          45         0.4530         0.4214         0.4212         0.0136
          46        -0.2826         0.4361         0.4359         0.0144
          47         0.1842         0.4510         0.4507         0.0153
          48         1.2988         0.4661         0.4659         0.0162
          49         0.1909         0.4815         0.4812         0.0171
          50        -0.6751         0.4971         0.4968         0.0181
          51        -0.5011         0.5130         0.5126         0.0191
          52         0.7714         0.5290         0.5287         0.0201
          53         0.7583         0.5454         0.5449         0.0211
          54         0.0233         0.5619         0.5615         0.0222
          55        -0.4302         0.5787         0.5782         0.0233
          56         0.0521         0.5957         0.5952         0.0244
          57         0.6421         0.6129         0.6123         0.0255
          58        -0.1078         0.6303         0.6298         0.0267
          59        -0.6413         0.6480         0.6474         0.0279
          60         0.8170         0.6660         0.6653         0.0291
          61         1.6681         0.6841         0.6835         0.0303
          62        -1.0117         0.7025         0.7018         0.0316
          63         0.9346         0.7212         0.7204         0.0328
          64         0.5151         0.7400         0.7392         0.0341
          65         0.4883         0.7591         0.7583         0.0354
          66         0.8321         0.7785         0.7776         0.0367
          67         0.4796         0.7981         0.7972         0.0381
          68        -0.1984         0.8179         0.8169         0.0394
          69        -1.1860         0.8380         0.8370         0.0408
          70         0.5659         0.8582         0.8572         0.0422
          71         1.3451         0.8788         0.8777         0.0436
          72        -1.1645         0.8996         0.8985         0.0450
          73        -0.3139         0.9206         0.9194         0.0464
          74         1.1152         0.9419         0.9407         0.0478
          75         1.3358         0.9634         0.9621         0.0492
          76         2.0624         0.9851         0.9838         0.0507
          77         2.3957         1.0071         1.0058         0.0521
          78         1.1479         1.0294         1.0280         0.0535
          79        -0.5210         1.0518         1.0504         0.0550
          80         0.7164         1.0746         1.0731         0.0564
          81         1.4909         1.0976         1.0960         0.0578
          82         3.0111         1.1208         1.1192         0.0593
          83         2.9342         1.1443         1.1427         0.0607
          84        -0.2152         1.1680         1.1664         0.0622
          85         1.4643         1.1920         1.1903         0.0636
          86         1.8198         1.2162         1.2145         0.0650
          87        -1.0144         1.2407         1.2389         0.0664
          88         4.1415         1.2655         1.2636         0.0678
          89         2.4792         1.2905         1.2886         0.0692
          90        -0.1889         1.3157         1.3138         0.0706
          91         0.5760         1.3412         1.3393         0.0720
          92         2.3078         1.3670         1.3650         0.0733
          93         1.3309         1.3930         1.3910         0.0747
          94         2.3675         1.4194         1.4173         0.0760
          95        -2.5674         1.4459         1.4438         0.0773
          96         1.2779         1.4727         1.4706         0.0786
          97         1.5572         1.4998         1.4977         0.0798
          98         1.2302         1.5272         1.5250         0.0811
          99         2.7458         1.5548         1.5526         0.0823
         100        -1.6763         1.5827         1.5805         0.0835
         101         1.5008         1.6109         1.6087         0.0847
         102        -2.7354         1.6393         1.6371         0.0858
         103         0.4796         1.6681         1.6658         0.0869
         104        -2.8264         1.6971         1.6948         0.0880
         105         0.5704         1.7263         1.7240         0.0891
         106         2.4204         1.7559         1.7536         0.0901
         107        -3.2599         1.7857         1.7834         0.0911
         108         5.1121         1.8158         1.8135         0.0921
         109         1.7816         1.8463         1.8439         0.0930
         110         5.2664         1.8769         1.8746         0.0939
         111         5.7047         1.9080         1.9056         0.0948
         112        -0.7711         1.9392         1.9369         0.0956
         113         3.0352         1.9708         1.9685         0.0964
         114         3.4269         2.0027         2.0003         0.0972
         115         0.5023         2.0349         2.0325         0.0979
         116         3.4621         2.0673         2.0650         0.0986
         117         6.1645         2.1001         2.0978         0.0992
         118         2.0038         2.1332         2.1309         0.0998
         119         2.5192         2.1666         2.1643         0.1004
         120         4.7757         2.2003         2.1980         0.1009
         121         3.6107         2.2343         2.2320         0.1014
         122         0.4807         2.2686         2.2664         0.1018
         123        -1.9523         2.3033         2.3011         0.1022
         124        -4.4982         2.3383         2.3361         0.1026
         125        -1.4113         2.3736         2.3714         0.1029
         126         3.3964         2.4092         2.4070         0.1031
         127         5.1750         2.4452         2.4430         0.1033
         128         6.3404         2.4815         2.4794         0.1035
         129         3.8874         2.5182         2.5160         0.1037
         130        -0.4045         2.5551         2.5530         0.1037
         131        -0.4711         2.5925         2.5904         0.1038
         132        -1.4210         2.6302         2.6281         0.1038
         133        -0.0455         2.6682         2.6662         0.1038
         134        -1.0414         2.7066         2.7046         0.1037
         135         1.9693         2.7453         2.7434         0.1035
         136         4.5170         2.7844         2.7825         0.1034
         137         1.3388         2.8239         2.8220         0.1031
         138        -4.8685         2.8637         2.8619         0.1029
         139         4.5111         2.9040         2.9022         0.1026
         140         4.7418         2.9446         2.9428         0.1023
         141        -3.4915         2.9856         2.9838         0.1019
         142        -5.0070         3.0269         3.0252         0.1015
         143         3.1761         3.0687         3.0670         0.1010
         144        -4.5908         3.1109         3.1093         0.1005
         145        -0.2200         3.1535         3.1519         0.1000
         146         2.5714         3.1964         3.1949         0.0994
         147        10.6930         3.2398         3.2383         0.0988
         148         5.2001         3.2837         3.2822         0.0981
         149         2.9968         3.3279         3.3264         0.0975
         150        -6.1994         3.3725         3.3711         0.0967
         151        -0.9216         3.4176         3.4163         0.0960
         152         4.4296         3.4632         3.4619         0.0952
         153        -5.5841         3.5091         3.5079         0.0944
         154        -5.3818         3.5555         3.5543         0.0936
         155        -5.3339         3.6024         3.6012         0.0927
         156        12.2787         3.6498         3.6486         0.0918
         157        -5.4409         3.6976         3.6965         0.0909
         158         1.7587         3.7458         3.7448         0.0900
         159         5.7645         3.7946         3.7936         0.0890
         160        -4.1900         3.8438         3.8428         0.0880
         161         7.0586         3.8936         3.8926         0.0870
         162        -2.3259         3.9438         3.9428         0.0860
         163         2.5694         3.9945         3.9936         0.0850
         164         6.1798         4.0458         4.0449         0.0839
         165         2.8178         4.0975         4.0967         0.0829
         166         0.6080         4.1498         4.1490         0.0818
         167        -5.1495         4.2026         4.2018         0.0807
         168         3.0844         4.2559         4.2552         0.0796
         169         8.1783         4.3098         4.3091         0.0785
         170         3.2920         4.3643         4.3636         0.0774
         171        -3.2260         4.4192         4.4186         0.0763
         172         9.2756         4.4748         4.4742         0.0752
         173        -2.2841         4.5310         4.5304         0.0741
         174       -13.1952         4.5876         4.5870         0.0730
         175         3.3410         4.6450         4.6444         0.0719
         176         9.4586         4.7029         4.7023         0.0709
         177         2.9372         4.7614         4.7608         0.0698
         178         6.4724         4.8205         4.8200         0.0687
         179        -0.7327         4.8802         4.8798         0.0677
         180        -0.0763         4.9406         4.9401         0.0667
         181         0.1885         5.0015         5.0011         0.0657
         182         5.3942         5.0632         5.0628         0.0647
         183        -6.7669         5.1256         5.1252         0.0637
         184         8.1810         5.1886         5.1882         0.0628
         185        -4.7246         5.2522         5.2518         0.0619
         186        -5.5494         5.3165         5.3162         0.0610
         187         9.7744         5.3815         5.3811         0.0602
         188        -9.0504         5.4473         5.4470         0.0594
         189         2.7786         5.5136         5.5133         0.0586
         190        -0.3336         5.5810         5.5807         0.0579
         191         5.7683         5.6487         5.6484         0.0572
         192        -3.7517         5.7173         5.7170         0.0566
         193        -5.6807         5.7868         5.7866         0.0560
         194        -5.3161         5.8567         5.8565         0.0555
         195         7.4600         5.9277         5.9275         0.0550
         196        23.7121         5.9994         5.9992         0.0546
         197        13.2056         6.0719         6.0716         0.0542
         198         6.0703         6.1452         6.1450         0.0539
         199         1.2467         6.2192         6.2189         0.0537
         200         5.7474         6.2940         6.2938         0.0535
         201        -3.0226         6.3698         6.3695         0.0534
         202       -10.4323         6.4464         6.4462         0.0533
         203       -14.4604         6.5237         6.5234         0.0534
         204        18.9374         6.6021         6.6019         0.0535
         205        -0.5349         6.6812         6.6810         0.0536
         206        -6.6818         6.7611         6.7609         0.0539
         207        -0.5456         6.8422         6.8420         0.0542
         208         5.4640         6.9241         6.9238         0.0547
         209        10.6546         7.0066         7.0064         0.0552
         210        -7.3385         7.0903         7.0901         0.0558
         211         8.5683         7.1749         7.1747         0.0564
         212         8.0355         7.2605         7.2603         0.0572
         213        -8.0153         7.3469         7.3467         0.0581
         214       -10.2036         7.4344         7.4342         0.0591
         215         2.7940         7.5228         7.5225         0.0601
         216        -4.1324         7.6125         7.6122         0.0613
         217         9.9688         7.7028         7.7025         0.0626
         218        15.8411         7.7941         7.7939         0.0640
         219        10.1844         7.8867         7.8865         0.0655
         220        19.4658         7.9801         7.9798         0.0670
         221        -6.0448         8.0748         8.0745         0.0688
         222         7.6579         8.1704         8.1701         0.0706
         223        -5.8797         8.2671         8.2668         0.0725
         224       -10.1474         8.3648         8.3645         0.0746
         225       -12.0073         8.4636         8.4633         0.0767
         226        17.7895         8.5635         8.5632         0.0790
         227         3.3451         8.6646         8.6642         0.0814
         228         7.4719         8.7667         8.7663         0.0840
         229        -1.9308         8.8700         8.8696         0.0866
         230         5.5426         8.9744         8.9740         0.0894
         231        -4.6187         9.0800         9.0796         0.0923
         232        -4.3471         9.1868         9.1863         0.0953
         233         6.3566         9.2946         9.2941         0.0985
         234       -18.1590         9.4037         9.4031         0.1018
         235        10.4615         9.5139         9.5134         0.1052
         236         6.9459         9.6253         9.6247         0.1088
         237        31.6848         9.7381         9.7374         0.1125
         238        11.0007         9.8519         9.8512         0.1163
         239        -7.9715         9.9669         9.9662         0.1203
         240        -6.1908        10.0833        10.0826         0.1244
         241         1.8674        10.2008        10.2000         0.1286
         242        -7.5799        10.3197        10.3188         0.1330
         243       -19.3332        10.4399        10.4390         0.1375
         244        12.3327        10.5611        10.5602         0.1421
         245         1.7682        10.6838        10.6828         0.1469
         246         8.6182        10.8077        10.8066         0.1519
         247        11.6981        10.9331        10.9319         0.1569
         248        -7.6121        11.0596        11.0584         0.1621
         249         5.4507        11.1873        11.1861         0.1675
         250       -10.9891        11.3166        11.3153         0.1730
         251         6.6135        11.4471        11.4457         0.1786
         252        -6.2090        11.5789        11.5774         0.1844
         253         0.9627        11.7120        11.7104         0.1903
         254         1.6704        11.8466        11.8450         0.1964
         255        20.3713        11.9825        11.9808         0.2025
         256       -28.7595        12.1198        12.1180         0.2089
         257        26.8769        12.2585        12.2566         0.2153
         258        -1.8183        12.3986        12.3966         0.2220
         259        11.5527        12.5401        12.5381         0.2287
         260        28.3536        12.6830        12.6808         0.2356
         261         4.6739        12.8274        12.8251         0.2426
         262        33.1030        12.9733        12.9709         0.2497
