# Wilkinson Microwave Anisotropy Probe (WMAP) 9-year data release.
# WMAP 9-Year Combined Power Spectrum, version 5.0 (December 2012)
#
# References: - WMAP Explanatory Supplement: http://lambda.gsfc.nasa.gov/
#             - Bennett, et al. (2012)
#             - Hinshaw, et al. (2012)
#
# Column 1 = multipole moment l
# Column 2 = TE power spectrum, units = uK^2, =  l(l+1)/2pi * C_l.
# Column 3 = 'Error' derived from diagonal terms of Fisher matrix, units = uK^2.
#             Included only as an estimate of their magnitude.  The
#             multipole moments are slightly coupled, so a correct
#             treatment of errors requires use of the entire Fisher matrix.
# Column 4 = portion of column3 error attributed to measurement errors,
#             sqrt[(Nl_tt * Cl_ee + Nl_ee * Cl_tt + N_tt * N_ee) / ((2l+1) fsky_te)],
#             in "2SN + NN" form, units = uK^2.
# Column 5 = portion of column3 error attributed to cosmic variance, 
#             sqrt[(Cl_ee * Cl_tt + Cl_te^2) / ((2l+1) fsky_te)],
#             assuming the best-fit LCDM model
           2         2.4439         5.7974         2.2831         5.3290
           3        -4.2363         6.0439         2.5031         5.5012
           4        -1.8376         5.5737         2.6640         4.8958
           5         4.8570         4.8750         2.8037         3.9881
           6         4.9840         4.2253         2.9362         3.0384
           7         1.0908         3.7745         3.0675         2.1993
           8        -3.5219         3.5591         3.1994         1.5593
           9         1.8458         3.5267         3.3327         1.1533
          10         5.7796         3.5949         3.4680         0.9466
          11        -1.2153         3.7020         3.6043         0.8446
          12        -0.2320         3.8223         3.7439         0.7699
          13        -0.4448         3.9455         3.8835         0.6963
          14        -0.9896         4.0735         4.0236         0.6353
          15         6.8225         4.2052         4.1621         0.5999
          16         3.6545         4.3440         4.3034         0.5923
          17        -2.0695         4.4881         4.4478         0.6000
          18        -1.4255         4.6325         4.5923         0.6084
          19         5.5585         4.7792         4.7396         0.6139
          20         3.1762         4.9242         4.8852         0.6183
          21        -4.0745         5.0706         5.0316         0.6276
          22        -1.6736         5.2188         5.1786         0.6466
          23        -3.6245         5.3676         5.3252         0.6736
          24        -7.6487         5.5179         5.4725         0.7064
          25        10.2823         5.6698         5.6210         0.7428
          26         3.3073         5.8219         5.7692         0.7816
          27         3.4579         5.9753         5.9185         0.8219
          28        -5.4831         6.1296         6.0687         0.8625
          29        11.7132         6.2843         6.2189         0.9038
          30         5.2956         6.4403         6.3706         0.9450
          31        -4.9441         6.5957         6.5217         0.9856
          32        -0.8978         6.7529         6.6746         1.0254
          33         4.8409         6.9104         6.8280         1.0642
          34         3.1704         7.0684         6.9817         1.1037
          35         3.5353         7.2284         7.1372         1.1443
          36        -6.1450         7.3880         7.2921         1.1865
          37       -19.4164         7.5490         7.4481         1.2297
          38        12.8816         7.7112         7.6053         1.2734
          39        -3.6843         7.8749         7.7639         1.3177
          40         5.7125         8.0394         7.9230         1.3631
          41        14.9660         8.2047         8.0827         1.4097
          42        13.0115         8.3709         8.2431         1.4575
          43        -6.3757         8.5380         8.4041         1.5059
          44         5.1732         8.7058         8.5658         1.5548
          45       -12.2977         8.8749         8.7288         1.6036
          46         5.7748         9.0451         8.8928         1.6527
          47        12.5171         9.2164         9.0579         1.7020
          48       -10.0226         9.3887         9.2238         1.7521
          49        -8.2403         9.5623         9.3908         1.8033
          50         1.4094         9.7373         9.5588         1.8557
          51         7.8127         9.9135         9.7279         1.9094
          52       -26.1468        10.0914         9.8985         1.9641
          53        -2.3161        10.2702        10.0697         2.0196
          54        -6.5101        10.4502        10.2420         2.0757
          55        10.6117        10.6309        10.4148         2.1324
          56        -4.5970        10.8129        10.5889         2.1897
          57        -0.5114        10.9968        10.7646         2.2477
          58         5.7085        11.1820        10.9416         2.3065
          59        -0.1854        11.3691        11.1201         2.3662
          60         0.8135        11.5570        11.2993         2.4266
          61        -0.0638        11.7466        11.4801         2.4879
          62        -5.0026        11.9375        11.6619         2.5499
          63        13.1551        12.1296        11.8448         2.6127
          64        -9.9313        12.3232        12.0291         2.6762
          65        -8.5335        12.5185        12.2148         2.7406
          66         9.2134        12.7156        12.4022         2.8057
          67       -10.0302        12.9142        12.5909         2.8714
          68         1.0558        13.1143        12.7810         2.9378
          69       -10.6525        13.3157        12.9723         3.0046
          70        -5.4654        13.5183        13.1647         3.0718
          71       -34.4484        13.7221        13.3581         3.1394
          72        -5.4251        13.9275        13.5531         3.2077
          73       -14.5644        14.1348        13.7498         3.2765
          74         5.5116        14.3442        13.9485         3.3459
          75        -1.9311        14.5558        14.1492         3.4160
          76        -6.4880        14.7690        14.3516         3.4866
          77        13.8824        14.9838        14.5554         3.5575
          78       -19.1158        15.2001        14.7606         3.6287
          79        -7.7727        15.4177        14.9671         3.7002
          80       -42.6486        15.6368        15.1750         3.7719
          81        10.6427        15.8577        15.3847         3.8440
          82        -6.1752        16.0802        15.5960         3.9162
          83         7.6399        16.3045        15.8090         3.9886
          84        -5.9267        16.5302        16.0236         4.0612
          85       -21.4087        16.7574        16.2396         4.1337
          86         3.2669        16.9866        16.4575         4.2063
          87       -29.2322        17.2170        16.6768         4.2789
          88       -18.6103        17.4487        16.8975         4.3513
          89       -38.5676        17.6820        17.1198         4.4235
          90        -2.3543        17.9167        17.3435         4.4955
          91       -34.1272        18.1527        17.5687         4.5673
          92       -28.9883        18.3904        17.7958         4.6389
          93         3.2661        18.6295        18.0242         4.7101
          94        -9.4203        18.8700        18.2542         4.7810
          95       -17.5471        19.1120        18.4860         4.8516
          96       -34.2125        19.3554        18.7192         4.9217
          97       -14.4016        19.6005        18.9543         4.9914
          98         9.1004        19.8471        19.1911         5.0606
          99       -43.3648        20.0950        19.4294         5.1292
         100       -15.8702        20.3447        19.6696         5.1973
         101       -34.0800        20.5957        19.9114         5.2648
         102       -47.0902        20.8479        20.1547         5.3314
         103       -22.3104        21.1018        20.3999         5.3974
         104       -16.7831        21.3570        20.6467         5.4624
         105        -9.5426        21.6136        20.8951         5.5268
         106       -28.3808        21.8715        21.1450         5.5903
         107       -62.7755        22.1306        21.3966         5.6526
         108       -60.7255        22.3912        21.6498         5.7143
         109        -6.1065        22.6530        21.9046         5.7747
         110       -10.3503        22.9161        22.1611         5.8341
         111       -17.2115        23.1802        22.4187         5.8923
         112         0.8499        23.4454        22.6780         5.9493
         113       -20.8679        23.7122        22.9391         6.0053
         114       -36.9446        23.9795        23.2012         6.0598
         115         9.9206        24.2485        23.4652         6.1131
         116       -55.5233        24.5181        23.7303         6.1649
         117      -121.3256        24.7889        23.9970         6.2154
         118       -79.3034        25.0609        24.2653         6.2646
         119       -67.7715        25.3336        24.5346         6.3122
         120       -74.5743        25.6074        24.8055         6.3582
         121       -39.2695        25.8821        25.0776         6.4028
         122       -11.9761        26.1576        25.3510         6.4457
         123       -46.4677        26.4340        25.6257         6.4869
         124       -47.0459        26.7115        25.9019         6.5265
         125       -19.2547        26.9896        26.1792         6.5643
         126       -36.1226        27.2686        26.4577         6.6006
         127        26.1237        27.5484        26.7375         6.6348
         128      -105.8104        27.8289        27.0184         6.6674
         129       -11.3767        28.1100        27.3003         6.6980
         130       -53.4459        28.3918        27.5835         6.7266
         131       -39.0493        28.6743        27.8677         6.7534
         132       -11.9720        28.9576        28.1531         6.7783
         133       -50.5735        29.2413        28.4393         6.8013
         134       -31.8539        29.5257        28.7267         6.8222
         135       -54.4991        29.8110        29.0154         6.8411
         136      -109.3448        30.0963        29.3046         6.8579
         137       -38.7816        30.3823        29.5948         6.8726
         138       -54.8713        30.6689        29.8860         6.8854
         139        22.9990        30.9557        30.1778         6.8960
         140       -25.6718        31.2433        30.4708         6.9045
         141      -129.0457        31.5310        30.7644         6.9107
         142       -21.0543        31.8193        31.0588         6.9150
         143       -37.6114        32.1078        31.3539         6.9170
         144       -50.2850        32.3968        31.6498         6.9169
         145       -30.5241        32.6855        31.9458         6.9146
         146       -46.0430        32.9751        32.2430         6.9102
         147       -91.6105        33.2646        32.5404         6.9035
         148       -25.7755        33.5544        32.8384         6.8947
         149         1.4467        33.8447        33.1372         6.8837
         150       -20.4531        34.1352        33.4366         6.8706
         151       -42.0768        34.4254        33.7359         6.8553
         152        -1.4288        34.7161        34.0361         6.8377
         153       -35.2195        35.0069        34.3365         6.8183
         154       -44.2839        35.2979        34.6374         6.7966
         155       -31.8630        35.5893        34.9389         6.7728
         156       -55.5853        35.8808        35.2407         6.7469
         157         8.6605        36.1724        35.5429         6.7192
         158       -25.7535        36.4649        35.8460         6.6894
         159       -47.3415        36.7571        36.1492         6.6576
         160       -49.2480        37.0502        36.4533         6.6238
         161       -90.1831        37.3433        36.7576         6.5882
         162       -53.3396        37.6360        37.0615         6.5507
         163       -68.8429        37.9295        37.3664         6.5114
         164       -88.2746        38.2229        37.6713         6.4702
         165       -93.8763        38.5166        37.9766         6.4274
         166       -65.2264        38.8101        38.2816         6.3828
         167       -87.1053        39.1042        38.5874         6.3364
         168      -128.1752        39.3981        38.8930         6.2887
         169      -107.5713        39.6918        39.1984         6.2392
         170       -19.3334        39.9854        39.5036         6.1885
         171       -11.9173        40.2794        39.8093         6.1362
         172       -28.9564        40.5728        40.1142         6.0826
         173       -44.0129        40.8660        40.4191         6.0277
         174       -67.2833        41.1593        40.7237         5.9718
         175       -32.4104        41.4526        41.0284         5.9149
         176       -68.7297        41.7453        41.3324         5.8568
         177       -90.8273        42.0377        41.6359         5.7980
         178       -42.7493        42.3297        41.9389         5.7385
         179       -16.1860        42.6215        42.2416         5.6783
         180       -41.7945        42.9129        42.5437         5.6176
         181        52.4108        43.2039        42.8451         5.5566
         182       -49.5517        43.4951        43.1465         5.4955
         183       -79.3058        43.7852        43.4467         5.4342
         184       -75.3150        44.0752        43.7464         5.3731
         185         3.2449        44.3648        44.0456         5.3124
         186       -16.7057        44.6539        44.3440         5.2520
         187       -33.0793        44.9426        44.6416         5.1924
         188       -58.3261        45.2312        44.9389         5.1336
         189       -66.7262        45.5186        45.2347         5.0759
         190       -91.9018        45.8063        45.5304         5.0195
         191       -21.1497        46.0927        45.8246         4.9646
         192       -65.8616        46.3793        46.1185         4.9115
         193        -5.7517        46.6649        46.4111         4.8603
         194       -55.0998        46.9504        46.7032         4.8114
         195        -6.0670        47.2351        46.9942         4.7650
         196       -74.3999        47.5194        47.2842         4.7213
         197       -47.4409        47.8028        47.5731         4.6806
         198       -73.4604        48.0862        47.8615         4.6431
         199        27.7021        48.3690        48.1489         4.6092
         200        62.9342        48.6505        48.4346         4.5791
         201        13.3213        48.9320        48.7197         4.5530
         202        49.7119        49.2129        49.0038         4.5311
         203       -41.0457        49.4924        49.2862         4.5137
         204       -33.3896        49.7712        49.5672         4.5010
         205        87.2493        50.0490        49.8469         4.4932
         206        93.8170        50.3259        50.1252         4.4904
         207       -72.5863        50.6024        50.4026         4.4929
         208        23.6383        50.8771        50.6776         4.5007
         209        22.4368        51.1508        50.9512         4.5139
         210        -3.8021        51.4237        51.2236         4.5328
         211        33.6409        51.6957        51.4944         4.5572
         212       -83.6910        51.9663        51.7634         4.5872
         213       -43.5578        52.2362        52.0312         4.6229
         214        58.8114        52.5047        52.2971         4.6640
         215        -6.9926        52.7715        52.5608         4.7109
         216         1.8992        53.0375        52.8232         4.7631
         217        51.3267        53.3027        53.0843         4.8205
         218        -6.6669        53.5662        53.3431         4.8832
         219       -54.9140        53.8283        53.6001         4.9510
         220       -76.0378        54.0892        53.8554         5.0237
         221        28.4846        54.3486        54.1087         5.1011
         222        75.1286        54.6063        54.3598         5.1829
         223        48.8182        54.8625        54.6089         5.2693
         224       -38.3410        55.1173        54.8561         5.3596
         225         7.8776        55.3700        55.1007         5.4540
         226       125.9435        55.6216        55.3438         5.5520
         227       -65.7556        55.8711        55.5843         5.6537
         228        -0.3372        56.1192        55.8229         5.7586
         229        15.9871        56.3655        56.0594         5.8667
         230        -0.8603        56.6099        56.2934         5.9776
         231        34.4790        56.8520        56.5247         6.0912
         232         5.9008        57.0931        56.7546         6.2074
         233       110.3762        57.3316        56.9815         6.3260
         234       -37.1129        57.5681        57.2060         6.4466
         235        28.5553        57.8031        57.4286         6.5693
         236        43.9406        58.0356        57.6483         6.6937
         237       -57.5508        58.2663        57.8658         6.8199
         238         8.6694        58.4946        58.0806         6.9474
         239        39.0522        58.7210        58.2931         7.0762
         240        73.9345        58.9447        58.5026         7.2061
         241       -15.8606        59.1668        58.7101         7.3371
         242        20.7410        59.3860        58.9145         7.4689
         243        77.5916        59.6032        59.1165         7.6015
         244       103.7873        59.8181        59.3159         7.7345
         245        34.5975        60.0300        59.5121         7.8682
         246        11.5520        60.2401        59.7062         8.0021
         247         8.4083        60.4472        59.8972         8.1361
         248        34.5238        60.6521        60.0856         8.2703
         249        57.6307        60.8545        60.2714         8.4045
         250        97.4756        61.0544        60.4543         8.5386
         251       -40.3965        61.2512        60.6341         8.6724
         252       127.3642        61.4454        60.8112         8.8059
         253        58.0447        61.6373        60.9857         8.9389
         254         7.6664        61.8259        61.1567         9.0714
         255        85.5118        62.0118        61.3251         9.2031
         256        91.2921        62.1945        61.4901         9.3343
         257        61.4344        62.3749        61.6527         9.4645
         258       107.6461        62.5520        61.8119         9.5938
         259       -20.2521        62.7259        61.9679         9.7221
         260       168.1133        62.8975        62.1215         9.8496
